AUTOCAL calibration, spectrum AA20190214_Cs137_25cm_detHPGE.spe,  .sou file: cs1
   1    173.9244      0.0636        5527          93     31.8170      0.0010         662          18
   1    198.0534      0.1855        1991          69     36.3780      0.0010         145          21
   1   3618.0278      0.0144       67633         262    661.6570      0.0030       10000          24
   1    288.8941      0.0487       10461         140     53.1560      0.0050         348           7
   1    877.8153      0.1684        3582         129    160.6090      0.0250         105           3
   1   1220.5699      0.2207        1846          83    223.1160      0.0350          71           2
   1   1511.8473      0.0220       24733         165    276.4040      0.0070        1130          20
   1   1656.3163      0.0134       56511         243    302.8580      0.0050        2920          30
   1   1946.6107      0.0077      164006         407    356.0140      0.0090       10000          30
   1   2098.7019      0.0225       21809         151    383.8590      0.0090        1450          20
   1    664.3633      0.0056      268080         533    121.7830      0.0020       13620         160
   1   1338.4900      0.0171       44620         229    244.6920      0.0020        3590          60
   1   1617.9048      0.1842        2736          91    295.9390      0.0080         211           5
   1   1882.5476      0.0095      115118         345    344.2760      0.0040       12750          90
   1   2010.7671      0.1224        3433          83    367.7890      0.0050         405           8
   1   2247.8621      0.0571        7907         105    411.1150      0.0050        1070          10
   1   2427.5334      0.0458       10143         114    443.9760      0.0050        1480          20
   1   2672.4167      0.2888        1337          64    488.6610      0.0390         195           2
   1   3083.1426      0.3250        1125          65    564.0210      0.0080         236           5
   1   3206.3379      0.3202         757          55    586.2940      0.0060         220           5
   1   3710.8025      0.3204        1005          57    678.5780      0.0030         221           4
   1   3765.7910      0.1974        1770          64    688.6780      0.0060         400           8
   1   4259.2705      0.0298       24752         166    778.9030      0.0060        6190          80
   1   4742.6372      0.0727        7101          99    867.3880      0.0080        1990          40
   1   5271.0151      0.0324       22921         159    964.1310      0.0090        6920          90
   1   5495.3271      0.2675        1130          48   1005.2790      0.0170         310           7
   1   6079.7803      0.0402       17946         144   1112.1160      0.0170        6490          90
   1   6631.3828      0.2033        1529          52   1212.9500      0.0120         670           8
   1   7102.6216      0.1669        1723          49   1299.1240      0.0120         780          10
   1   7697.6621      0.0385       21572         157   1408.0110      0.0140       10000          30
